# Total intensity (both polarization) with the peak normalized to 5
# so this only gives the angular dependence and you have to use the
# total flux at the energy to renormalize it
# anything negative should be zeroed
# slab model
#   Angle       I(1keV)   I(2keV)    I(5keV)   I(10keV)   I(15keV)   I(30keV)
  0.000000   0.202742   0.362829   2.681318   5.027906   4.986925   5.010003
  1.000000   0.252099   0.328165   2.476060   5.027906   4.986925   5.010003
  2.000000   0.375686   0.716526   2.604827   5.027906   4.986925   5.010003
  3.000000   0.760632   1.118841   2.938125   5.027906   4.986925   5.010003
  4.000000   1.628635   1.499473   3.127493   5.027906   4.986925   5.010003
  5.000000   2.145532   2.126400   3.261302   5.027906   4.986925   5.010003
  6.000000   2.886370   2.362567   3.486477   5.027906   4.986906   5.010003
  7.000000   3.521941   2.925399   3.805942   5.022093   4.946867   4.995797
  8.000000   4.089455   3.434301   4.042246   5.000029   4.906829   4.949133
  9.000000   4.372750   3.969200   4.267018   4.977965   4.866791   4.902469
 10.000000   4.752273   4.263837   4.553990   4.955901   4.826752   4.855805
 11.000000   4.885233   4.506381   4.688186   4.933837   4.786714   4.809141
 12.000000   4.946164   4.673443   4.817582   4.911773   4.746676   4.762478
 13.000000   4.863059   4.811452   4.878492   4.882266   4.670388   4.689497
 14.000000   4.779953   4.949461   4.939403   4.800265   4.592385   4.615659
 15.000000   4.684370   4.881332   4.986965   4.718265   4.510924   4.541821
 16.000000   4.535380   4.768751   4.921493   4.634000   4.421743   4.462559
 17.000000   4.386390   4.656170   4.856020   4.530227   4.332067   4.379092
 18.000000   4.238901   4.543589   4.790548   4.426455   4.232683   4.295625
 19.000000   4.096651   4.431008   4.725076   4.318933   4.133300   4.202415
 20.000000   3.958971   4.310129   4.659604   4.210761   4.024606   4.101048
 21.000000   3.829238   4.168776   4.565698   4.100818   3.913494   3.999680
 22.000000   3.706627   4.021224   4.466315   3.989706   3.807193   3.908135
 23.000000   3.591099   3.865470   4.373736   3.883798   3.704885   3.817500
 24.000000   3.477834   3.714418   4.286008   3.787335   3.602577   3.721132
 25.000000   3.371129   3.566778   4.195465   3.691017   3.500268   3.621749
 26.000000   3.264544   3.426939   4.099003   3.596013   3.397960   3.522365
 27.000000   3.176919   3.290064   4.003347   3.501008   3.295652   3.422982
 28.000000   3.089295   3.165258   3.919142   3.412214   3.193343   3.324680
 29.000000   3.007082   3.042345   3.834937   3.324590   3.105298   3.232694
 30.000000   2.934180   2.932287   3.754845   3.240551   3.021093   3.140707
 31.000000   2.861279   2.829979   3.680322   3.170600   2.937594   3.052218
 32.000000   2.789185   2.729840   3.605799   3.100650   2.858198   2.967081
 33.000000   2.718659   2.633377   3.529010   3.030700   2.778802   2.881944
 34.000000   2.648133   2.539067   3.448800   2.969792   2.701349   2.792204
 35.000000   2.577608   2.461374   3.368590   2.911228   2.637574   2.701776
 36.000000   2.520377   2.383681   3.289606   2.852664   2.573799   2.615061
 37.000000   2.464120   2.306714   3.212648   2.794100   2.510024   2.540538
 38.000000   2.407863   2.230568   3.135689   2.740139   2.451045   2.466015
 39.000000   2.351606   2.154421   3.061588   2.686202   2.394024   2.391996
 40.000000   2.296486   2.083577   2.992735   2.632264   2.337004   2.319905
 41.000000   2.241745   2.019372   2.923881   2.579620   2.279984   2.247814
 42.000000   2.187004   1.955167   2.853986   2.532453   2.227166   2.176517
 43.000000   2.132263   1.891303   2.781895   2.485287   2.174768   2.108867
 44.000000   2.078475   1.838469   2.709803   2.438120   2.122370   2.041217
 45.000000   2.028850   1.785636   2.640068   2.390953   2.070350   1.973566
 46.000000   1.979225   1.732803   2.576006   2.344160   2.021588   1.912500
 47.000000   1.929599   1.679970   2.511944   2.297368   1.972826   1.853421
 48.000000   1.879974   1.630737   2.447882   2.250575   1.924064   1.794343
 49.000000   1.830348   1.582168   2.382812   2.203783   1.875302   1.735264
 50.000000   1.787640   1.533599   2.317602   2.155175   1.829039   1.682466
 51.000000   1.745445   1.485030   2.252393   2.104116   1.784969   1.629866
 52.000000   1.703251   1.438111   2.187986   2.053057   1.740898   1.577266
 53.000000   1.661057   1.395583   2.124497   2.001998   1.696828   1.524666
 54.000000   1.618862   1.353056   2.061009   1.950939   1.652758   1.475782
 55.000000   1.576668   1.310528   1.997747   1.899880   1.607328   1.427923
 56.000000   1.529212   1.268000   1.938669   1.848821   1.560891   1.380065
 57.000000   1.479990   1.226545   1.879590   1.797762   1.514454   1.332207
 58.000000   1.430769   1.187448   1.820512   1.746703   1.468016   1.285248
 59.000000   1.381547   1.148351   1.762473   1.694794   1.421579   1.241646
 60.000000   1.332326   1.109255   1.707508   1.640795   1.375497   1.198043
 61.000000   1.288000   1.070158   1.652544   1.586795   1.329415   1.154440
 62.000000   1.244917   1.031061   1.597579   1.532795   1.283333   1.110838
 63.000000   1.201835   0.993777   1.541458   1.478587   1.237250   1.067902
 64.000000   1.158753   0.957784   1.483924   1.422595   1.192829   1.026942
 65.000000   1.115670   0.921792   1.426389   1.366603   1.150648   0.985982
 66.000000   1.072494   0.885800   1.368854   1.310611   1.108467   0.945022
 67.000000   1.028156   0.849808   1.313990   1.255085   1.066286   0.904062
 68.000000   0.983817   0.813815   1.260566   1.200634   1.024104   0.863103
 69.000000   0.939479   0.779308   1.207142   1.146183   0.978020   0.824031
 70.000000   0.895141   0.746491   1.153718   1.091732   0.931227   0.785151
 71.000000   0.850802   0.713673   1.101844   1.037281   0.884435   0.746271
 72.000000   0.807105   0.680856   1.050254   0.982830   0.837643   0.707390
 73.000000   0.764577   0.648039   0.998664   0.928380   0.792053   0.668510
 74.000000   0.722049   0.615221   0.947075   0.873929   0.749665   0.631904
 75.000000   0.679521   0.582284   0.892823   0.820387   0.707277   0.597080
 76.000000   0.636993   0.549119   0.837189   0.767243   0.664890   0.562256
 77.000000   0.594208   0.515954   0.781555   0.714099   0.622502   0.527432
 78.000000   0.551026   0.482789   0.725921   0.660955   0.581291   0.492608
 79.000000   0.507844   0.449624   0.670361   0.609057   0.542671   0.457784
 80.000000   0.464662   0.416459   0.614883   0.558354   0.504050   0.426156
 81.000000   0.421480   0.380046   0.559404   0.507651   0.465430   0.398548
 82.000000   0.378873   0.341540   0.503926   0.456948   0.426810   0.370941
 83.000000   0.337016   0.303034   0.452766   0.406245   0.388189   0.343334
 84.000000   0.295158   0.264529   0.403699   0.364560   0.358526   0.315726
 85.000000   0.253301   0.226023   0.354633   0.323428   0.329190   0.288119
 86.000000   0.211443   0.187517   0.305566   0.282296   0.299854   0.260512
 87.000000   0.169586   0.182836   0.254382   0.241165   0.270519   0.232904
 88.000000   0.157418   0.182836   0.184720   0.230605   0.241183   0.226841
 89.000000   0.157418   0.182836   0.155995   0.230605   0.211847   0.226841
 90.000000   0.157418   0.182836   0.155995   0.230605   0.198096   0.226841
